#================================================================#
# SMARTS2 -- Algorithms and performance assessment               #
#================================================================#
#
# APPENDIX: Extraterrestrial spectrum and absorption coefficients
#           at their reference temperature
#
# λ      E0nλ       Awλ        Aoλ      Anλ  
280    0.0906   0.00E+00   1.05E+02    1.46
281    0.1585   0.00E+00   9.44E+01    1.52
282    0.2692   0.00E+00   8.47E+01    1.55
283    0.3222   0.00E+00   7.92E+01    1.68
284    0.3025   0.00E+00   7.12E+01    1.78
285    0.1865   0.00E+00   6.35E+01    1.91
286    0.2546   0.00E+00   5.77E+01    1.94
287    0.3578   0.00E+00   5.21E+01    1.99
288    0.3225   0.00E+00   4.52E+01    2.08
289    0.4028   0.00E+00   4.05E+01    2.21
290    0.5596   0.00E+00   3.61E+01    2.33
291    0.6110   0.00E+00   3.23E+01    2.52
292    0.5675   0.00E+00   2.78E+01    2.58
293    0.5500   0.00E+00   2.50E+01    2.60
294    0.5428   0.00E+00   2.16E+01    2.71
295    0.5453   0.00E+00   1.92E+01    2.83
296    0.5731   0.00E+00   1.64E+01    3.05
297    0.5064   0.00E+00   1.46E+01    3.30
298    0.5286   0.00E+00   1.25E+01    3.31
299    0.5024   0.00E+00   1.11E+01    3.38
300    0.4700   0.00E+00   9.52E+00    3.42
301    0.4693   0.00E+00   8.29E+00    3.62
302    0.4466   0.00E+00   7.29E+00    3.90
303    0.6041   0.00E+00   6.22E+00    4.08
304    0.6278   0.00E+00   5.58E+00    4.16
305    0.6373   0.00E+00   4.69E+00    4.24
306    0.6000   0.00E+00   4.20E+00    4.38
307    0.6143   0.00E+00   3.59E+00    4.51
308    0.6660   0.00E+00   3.12E+00    4.70
309    0.6097   0.00E+00   2.82E+00    4.96
310    0.5055   0.00E+00   2.31E+00    5.09
311    0.7623   0.00E+00   2.11E+00    5.30
312    0.7005   0.00E+00   1.78E+00    5.47
313    0.6974   0.00E+00   1.53E+00    5.49
314    0.7428   0.00E+00   1.39E+00    5.71
315    0.6868   0.00E+00   1.12E+00    5.88
316    0.5852   0.00E+00   1.05E+00    6.06
317    0.7612   0.00E+00   8.52E-01    6.40
318    0.7193   0.00E+00   8.11E-01    6.51
319    0.7069   0.00E+00   5.82E-01    6.65
320    0.7952   0.00E+00   6.59E-01    6.86
321    0.7724   0.00E+00   4.01E-01    6.94
322    0.7576   0.00E+00   4.59E-01    7.22
323    0.6528   0.00E+00   4.06E-01    7.33
324    0.7345   0.00E+00   2.22E-01    7.55
325    0.8291   0.00E+00   3.41E-01    7.80
326    0.9792   0.00E+00   2.14E-01    7.98
327    0.9993   0.00E+00   1.55E-01    8.11
328    0.9315   0.00E+00   2.41E-01    8.28
329    0.9684   0.00E+00   1.03E-01    8.49
330    1.1286   0.00E+00   1.01E-01    8.55
331    0.9718   0.00E+00   1.54E-01    8.75
332    1.0013   0.00E+00   7.16E-02    9.30
333    0.9760   0.00E+00   5.39E-02    9.25
334    0.9487   0.00E+00   9.91E-02    9.23
335    1.0110   0.00E+00   3.67E-02    9.43
336    0.9065   0.00E+00   2.85E-02    9.57
337    0.8107   0.00E+00   6.23E-02    9.61
338    0.9240   0.00E+00   3.92E-02   10.30
339    0.9737   0.00E+00   1.66E-02   10.43
340    1.0457   0.00E+00   3.07E-02   10.61
341    0.9405   0.00E+00   1.77E-02   10.72
342    1.0010   0.00E+00   7.60E-03   10.28
343    1.0420   0.00E+00   9.41E-03   10.49
344    0.8328   0.00E+00   2.39E-02   10.81
345    0.9194   0.00E+00   1.20E-02   11.19
346    0.9292   0.00E+00   5.62E-03   11.59
347    0.9804   0.00E+00   6.98E-03   11.85
348    0.9314   0.00E+00   5.06E-03   12.15
349    0.8842   0.00E+00   2.43E-03   11.49
350    1.0183   0.00E+00   2.04E-03   11.70
351    1.0191   0.00E+00   3.42E-03   11.85
352    0.9827   0.00E+00   5.02E-03   11.68
353    0.9887   0.00E+00   2.31E-03   12.35
354    1.1280   0.00E+00   1.10E-03   13.07
355    1.1298   0.00E+00   1.31E-03   12.71
356    1.0317   0.00E+00   1.22E-03   13.17
357    0.8369   0.00E+00   1.36E-03   13.48
358    0.7555   0.00E+00   1.26E-03   12.85
359    0.8474   0.00E+00   1.02E-03   12.72
360    1.1151   0.00E+00   9.62E-04   13.23
361    0.8927   0.00E+00   7.66E-04   13.51
362    0.9129   0.00E+00   5.74E-04   13.50
363    1.0740   0.00E+00   3.37E-04   13.55
364    1.0922   0.00E+00   3.38E-04   14.19
365    1.0560   0.00E+00   3.13E-04   14.50
366    1.2973   0.00E+00   0.00E+00   13.98
367    1.2525   0.00E+00   0.00E+00   14.21
368    1.1615   0.00E+00   0.00E+00   14.13
369    1.2021   0.00E+00   0.00E+00   14.15
370    1.2907   0.00E+00   0.00E+00   14.09
371    1.1480   0.00E+00   0.00E+00   14.75
372    1.0890   0.00E+00   0.00E+00   14.95
373    1.0449   0.00E+00   0.00E+00   14.55
374    0.9539   0.00E+00   0.00E+00   14.39
375    0.9484   0.00E+00   0.00E+00   15.30
376    1.1345   0.00E+00   0.00E+00   15.40
377    1.2004   0.00E+00   0.00E+00   14.54
378    1.4325   0.00E+00   0.00E+00   14.55
379    1.2202   0.00E+00   0.00E+00   15.55
380    1.0939   0.00E+00   0.00E+00   15.60
381    1.2592   0.00E+00   0.00E+00   15.23
382    0.9514   0.00E+00   0.00E+00   14.93
383    0.7072   0.00E+00   0.00E+00   15.30
384    0.7826   0.00E+00   0.00E+00   15.70
385    1.0801   0.00E+00   0.00E+00   15.44
386    0.9598   0.00E+00   0.00E+00   15.35
387    0.9969   0.00E+00   0.00E+00   15.70
388    0.9929   0.00E+00   0.00E+00   15.86
389    1.0789   0.00E+00   0.00E+00   15.97
390    1.2447   0.00E+00   0.00E+00   15.97
391    1.3312   0.00E+00   0.00E+00   16.25
392    1.2405   0.00E+00   0.00E+00   15.82
393    0.6884   0.00E+00   0.00E+00   15.25
394    0.7939   0.00E+00   0.00E+00   15.50
395    1.2850   0.00E+00   0.00E+00   16.11
396    1.2319   0.00E+00   0.00E+00   15.68
397    0.6265   0.00E+00   0.00E+00   16.10
398    1.3783   0.00E+00   0.00E+00   16.40
399    1.6672   0.00E+00   0.00E+00   16.43
400    1.7163   0.00E+00   0.00E+00   16.88
401    1.7519   0.00E+00   0.00E+00   16.10
402    1.8012   0.00E+00   0.00E+00   15.25
403    1.7126   0.00E+00   0.00E+00   15.55
404    1.7622   0.00E+00   0.00E+00   16.20
405    1.6983   0.00E+00   0.00E+00   15.70
406    1.6068   0.00E+00   0.00E+00   14.75
407    1.6164   0.00E+00   5.57E-05   15.50
408    1.6861   0.00E+00   1.30E-04   16.64
409    1.8466   0.00E+00   1.86E-04   16.45
410    1.5299   0.00E+00   2.26E-04   16.22
411    1.7390   0.00E+00   2.46E-04   15.33
412    1.8454   0.00E+00   2.28E-04   16.20
413    1.7370   0.00E+00   2.02E-04   16.50
414    1.8192   0.00E+00   2.12E-04   15.39
415    1.7688   0.00E+00   2.68E-04   14.30
416    1.8414   0.00E+00   3.39E-04   14.30
417    1.8174   0.00E+00   3.96E-04   14.92
418    1.6966   0.00E+00   4.26E-04   15.21
419    1.7613   0.00E+00   4.32E-04   15.70
420    1.6368   0.00E+00   4.32E-04   15.82
421    1.9260   0.00E+00   4.60E-04   15.80
422    1.7856   0.00E+00   5.41E-04   15.72
423    1.6634   0.00E+00   6.79E-04   15.97
424    1.7371   0.00E+00   8.62E-04   15.50
425    1.6739   0.00E+00   1.04E-03   13.90
426    1.7277   0.00E+00   1.15E-03   13.70
427    1.5874   0.00E+00   1.15E-03   14.90
428    1.6876   0.00E+00   1.08E-03   14.15
429    1.5558   0.00E+00   1.02E-03   13.40
430    1.2480   0.00E+00   1.02E-03   14.65
431    1.2880   0.00E+00   1.10E-03   14.10
432    1.8042   0.00E+00   1.28E-03   13.40
433    1.8187   0.00E+00   1.44E-03   14.45
434    1.5185   0.00E+00   1.50E-03   15.46
435    1.7717   0.00E+00   1.50E-03   15.08
436    1.9054   0.00E+00   1.51E-03   13.40
437    1.8774   0.00E+00   1.60E-03   12.16
438    1.6579   0.00E+00   1.81E-03   14.05
439    1.7325   0.00E+00   2.16E-03   14.50
440    1.8014   0.00E+00   2.60E-03   12.30
441    1.8649   3.10E-06   3.01E-03   11.15
442    1.9707   2.48E-05   3.31E-03   11.50
443    1.9266   1.59E-04   3.51E-03   12.40
444    1.9971   4.46E-05   3.52E-03   13.95
445    1.9760   5.90E-05   3.36E-03   13.10
446    1.8228   5.84E-05   3.16E-03   12.30
447    2.0043   1.19E-05   3.06E-03   13.90
448    2.0397   2.79E-06   3.14E-03   13.45
449    2.0130   0.00E+00   3.43E-03   11.79
450    2.0902   0.00E+00   3.77E-03   11.70
451    2.1812   0.00E+00   4.01E-03   11.71
452    2.0721   0.00E+00   4.10E-03   11.90
453    1.8733   0.00E+00   4.08E-03   11.21
454    2.0484   0.00E+00   4.10E-03   11.20
455    1.9586   0.00E+00   4.29E-03   10.91
456    2.1017   0.00E+00   4.73E-03   10.51
457    2.1161   0.00E+00   5.43E-03   11.77
458    2.0026   0.00E+00   6.30E-03   11.49
459    2.0615   0.00E+00   7.20E-03   11.30
460    2.0216   0.00E+00   8.07E-03   11.47
461    2.1087   0.00E+00   8.71E-03   10.72
462    2.0854   0.00E+00   9.00E-03   11.50
463    2.1247   0.00E+00   8.93E-03   11.75
464    2.0229   0.00E+00   8.49E-03   10.30
465    1.9781   0.00E+00   7.96E-03    9.10
466    2.0527   0.00E+00   7.72E-03    9.86
467    1.9384   2.12E-06   7.97E-03   10.15
468    2.0119   2.09E-06   8.46E-03    9.21
469    2.0479   9.03E-06   8.94E-03    8.65
470    1.9206   3.34E-05   9.39E-03    8.62
471    1.9660   1.30E-05   9.63E-03    8.78
472    2.1111   1.28E-05   9.74E-03    9.15
473    1.9776   1.27E-05   9.76E-03   10.60
474    2.0550   1.92E-06   1.01E-02   10.95
475    2.0880   0.00E+00   1.08E-02    9.78
476    1.9900   0.00E+00   1.20E-02    8.82
477    2.0469   0.00E+00   1.35E-02    8.42
478    2.1053   0.00E+00   1.52E-02    8.59
479    2.0673   0.00E+00   1.69E-02    9.21
480    2.1149   0.00E+00   1.86E-02    8.85
481    2.0670   0.00E+00   1.99E-02    8.21
482    2.0998   0.00E+00   2.08E-02    7.11
483    2.0276   0.00E+00   2.09E-02    6.64
484    2.0091   0.00E+00   2.04E-02    6.89
485    1.9786   1.49E-05   1.96E-02    7.04
486    1.5715   1.09E-05   1.90E-02    6.90
487    1.7982   7.25E-06   1.87E-02    7.35
488    1.9913   4.10E-06   1.88E-02    8.92
489    1.8816   7.08E-06   1.95E-02    8.50
490    2.0807   1.54E-06   2.04E-02    7.07
491    2.0092   1.52E-06   2.11E-02    6.45
492    1.8427   0.00E+00   2.14E-02    6.55
493    2.0118   0.00E+00   2.17E-02    7.21
494    1.9566   0.00E+00   2.21E-02    7.69
495    2.0698   0.00E+00   2.26E-02    7.57
496    1.9730   0.00E+00   2.36E-02    7.00
497    2.0205   0.00E+00   2.50E-02    5.80
498    1.9077   0.00E+00   2.68E-02    4.95
499    1.9531   0.00E+00   2.90E-02    4.50
500    1.9189   3.54E-06   3.15E-02    4.62
501    1.8556   9.17E-06   3.42E-02    5.16
502    1.8362   7.39E-05   3.68E-02    5.89
503    1.9477   1.78E-04   3.91E-02    6.00
504    1.8371   1.16E-03   4.08E-02    6.58
505    1.9688   1.75E-04   4.19E-02    6.10
506    2.0302   3.07E-04   4.22E-02    5.50
507    1.9238   3.92E-04   4.19E-02    5.17
508    1.8567   2.86E-04   4.13E-02    5.50
509    1.9665   1.63E-04   4.04E-02    5.98
510    1.9029   9.72E-05   3.99E-02    5.85
511    1.9373   2.98E-05   3.96E-02    5.61
512    1.9960   8.12E-06   4.01E-02    5.30
513    1.8645   5.35E-06   4.10E-02    4.61
514    1.8237   0.00E+00   4.20E-02    4.12
515    1.8804   0.00E+00   4.29E-02    3.80
516    1.8695   0.00E+00   4.38E-02    3.59
517    1.5183   0.00E+00   4.47E-02    3.70
518    1.7289   0.00E+00   4.55E-02    4.20
519    1.7665   0.00E+00   4.64E-02    4.28
520    1.8684   0.00E+00   4.74E-02    4.05
521    1.8384   0.00E+00   4.89E-02    3.73
522    1.9206   0.00E+00   5.05E-02    3.68
523    1.7997   0.00E+00   5.25E-02    3.75
524    1.9088   9.81E-06   5.49E-02    4.30
525    1.9470   1.26E-05   5.75E-02    4.77
526    1.8630   9.63E-07   6.01E-02    4.52
527    1.6928   9.51E-06   6.28E-02    4.17
528    1.8548   9.39E-07   6.54E-02    3.89
529    1.9819   4.48E-06   6.79E-02    3.62
530    1.8887   2.48E-06   7.01E-02    3.60
531    2.0090   2.45E-06   7.20E-02    3.53
532    1.9100   0.00E+00   7.34E-02    3.45
533    1.8172   0.00E+00   7.43E-02    3.06
534    1.8898   0.00E+00   7.48E-02    2.60
535    1.9271   0.00E+00   7.49E-02    2.29
536    1.9720   0.00E+00   7.47E-02    2.21
537    1.8126   0.00E+00   7.47E-02    2.35
538    1.9208   2.26E-06   7.51E-02    2.70
539    1.8649   6.10E-06   7.58E-02    2.59
540    1.7989   4.50E-05   7.69E-02    2.30
541    1.8084   2.00E-04   7.82E-02    2.65
542    1.8804   2.12E-04   7.98E-02    3.09
543    1.8233   5.20E-05   8.14E-02    3.10
544    1.9406   1.53E-04   8.29E-02    3.03
545    1.9016   9.74E-05   8.42E-02    3.00
546    1.8810   2.25E-04   8.52E-02    2.74
547    1.8872   9.10E-05   8.63E-02    2.88
548    1.8342   3.83E-05   8.72E-02    2.88
549    1.8952   1.80E-05   8.79E-02    2.70
550    1.8806   1.78E-05   8.86E-02    2.34
551    1.8495   7.48E-06   8.95E-02    2.15
552    1.8885   1.94E-06   9.05E-02    2.29
553    1.8338   1.92E-06   9.15E-02    2.27
554    1.8868   0.00E+00   9.28E-02    1.95
555    1.8961   0.00E+00   9.42E-02    1.60
556    1.8525   0.00E+00   9.59E-02    1.48
557    1.7988   0.00E+00   9.79E-02    1.47
558    1.8301   0.00E+00   1.00E-01    1.41
559    1.7430   0.00E+00   1.03E-01    1.33
560    1.8020   0.00E+00   1.05E-01    1.40
561    1.8708   0.00E+00   1.08E-01    1.53
562    1.8133   0.00E+00   1.10E-01    1.70
563    1.8822   6.18E-07   1.13E-01    2.12
564    1.8421   6.11E-07   1.15E-01    2.29 
565    1.8486   6.04E-07   1.17E-01    1.98 
566    1.8005   1.67E-06   1.18E-01    1.54 
567    1.8636   8.42E-06   1.20E-01    1.60  
568    1.8500   1.30E-04   1.21E-01    1.69 
569    1.8270   7.06E-04   1.23E-01    1.68 
570    1.8170   3.95E-04   1.25E-01    1.9  
571    1.7441   6.40E-05   1.26E-01    1.94 
572    1.8649   3.01E-04   1.27E-01    1.75 
573    1.8449   2.24E-04   1.28E-01    1.42 
574    1.8773   1.82E-04   1.28E-01    1.15 
575    1.8130   1.98E-04   1.28E-01    0.95 
576    1.7948   1.38E-04   1.27E-01    0.80  
577    1.8453   1.03E-04   1.26E-01    0.80  
578    1.7619   3.63E-05   1.25E-01    0.99 
579    1.8634   1.39E-05   1.24E-01    1.10  
580    1.8369   9.45E-06   1.23E-01    1.02 
581    1.8292   5.66E-06   1.22E-01    0.85 
582    1.8632   9.29E-06   1.21E-01    0.78 
583    1.8502   9.21E-06   1.20E-01    0.82 
584    1.8741   2.06E-05   1.19E-01    1.00    
585    1.8252   3.15E-05   1.18E-01    1.15 
586    1.7757   8.46E-05   1.18E-01    1.13 
587    1.8393   2.94E-04   1.18E-01    1.01 
588    1.8024   1.62E-03   1.18E-01    0.93 
589    1.6172   5.64E-03   1.18E-01    1.00    
590    1.7497   5.39E-03   1.19E-01    1.04 
591    1.8083   3.09E-03   1.20E-01    1.28 
592    1.8002   4.72E-03   1.21E-01    1.38 
593    1.8331   2.69E-03   1.23E-01    1.21 
594    1.7942   3.13E-03   1.25E-01    0.92 
595    1.7812   4.27E-03   1.28E-01    0.72 
596    1.7898   1.56E-03   1.30E-01    0.67 
597    1.7968   1.79E-03   1.33E-01    0.66 
598    1.8060   1.20E-03   1.35E-01    0.68 
599    1.7855   8.20E-04   1.37E-01    0.79 
600    1.7762   3.47E-04   1.38E-01    0.83 
601    1.7435   1.01E-04   1.39E-01    0.80  
602    1.7192   5.49E-05   1.39E-01    0.68 
603    1.7809   1.35E-05   1.39E-01    0.49 
604    1.7734   3.29E-06   1.39E-01    0.39 
605    1.7750   0.00E+00   1.37E-01    0.378
606    1.7640   0.00E+00   1.36E-01    0.375
607    1.7620   0.00E+00   1.34E-01    0.395
608    1.7610   0.00E+00   1.32E-01    0.413
609    1.7239   0.00E+00   1.30E-01    0.419
610    1.7520   0.00E+00   1.27E-01    0.470 
611    1.7296   0.00E+00   1.25E-01    0.670 
612    1.7025   0.00E+00   1.22E-01    0.835
613    1.7223   0.00E+00   1.20E-01    0.750 
614    1.6523   0.00E+00   1.18E-01    0.660 
615    1.7196   0.00E+00   1.16E-01    0.660 
616    1.6232   0.00E+00   1.14E-01    0.741
617    1.6366   0.00E+00   1.12E-01    0.680 
618    1.7068   0.00E+00   1.11E-01    0.540 
619    1.6832   0.00E+00   1.09E-01    0.560 
620    1.7050   0.00E+00   1.08E-01    0.589
621    1.7162   0.00E+00   1.07E-01    0.520
622    1.7006   0.00E+00   1.05E-01    0.495
623    1.6628   0.00E+00   1.04E-01    0.472
624    1.6236   0.00E+00   1.03E-01    0.450 
625    1.6353   9.42E-07   1.01E-01    0.432
626    1.7009   1.51E-05   1.00E-01    0.420 
627    1.6982   1.29E-04   9.87E-02    0.416
628    1.6607   3.36E-04   9.73E-02    0.395
629    1.6580   2.30E-04   9.58E-02    0.387
630    1.6444   9.55E-05   9.43E-02    0.379
631    1.6276   2.28E-05   9.29E-02    0.371
632    1.6706   2.63E-04   9.15E-02    0.362
633    1.6648   1.25E-04   9.00E-02    0.355
634    1.6340   6.27E-05   8.84E-02    0.350 
635    1.6236   8.93E-05   8.68E-02    0.347
636    1.6257   6.20E-05   8.53E-02    0.344
637    1.6606   6.48E-05   8.36E-02    0.341
638    1.6550   1.97E-05   8.20E-02    0.338
639    1.6530   2.83E-05   8.03E-02    0.335
640    1.6094   2.36E-05   7.87E-02    0.332
641    1.5836   3.27E-05   7.71E-02    0.331
642    1.6121   2.33E-05   7.56E-02    0.330
643    1.6142   5.36E-05   7.42E-02    0.329
644    1.5963   5.63E-05   7.29E-02    0.328
645    1.6200   1.33E-04   7.16E-02    0.327
646    1.6159   7.13E-04   7.03E-02    0.326
647    1.5812   1.95E-03   6.91E-02    0.325
648    1.5619   3.21E-03   6.79E-02    0.324
649    1.5600   2.64E-03   6.69E-02    0.323
650    1.5189   9.60E-04   6.57E-02    0.322
651    1.5944   5.85E-04   6.47E-02    0.317
652    1.595    3.52E-03   6.36E-02    0.312
653    1.6077   6.57E-04   6.25E-02    0.307
654    1.5962   5.71E-04   6.14E-02    0.302
655    1.4982   1.48E-03   6.03E-02    0.297
656    1.3960   9.80E-04   5.92E-02    0.292
657    1.4362   9.52E-04   5.81E-02    0.287
658    1.5382   4.90E-04   5.70E-02    0.282
659    1.5509   2.81E-04   5.60E-02    0.277
660    1.5576   2.16E-04   5.50E-02    0.272
661    1.5702   5.96E-05   5.40E-02    0.267
662    1.5664   1.35E-05   5.31E-02    0.262
663    1.5700   2.45E-05   5.21E-02    0.257
664    1.5661   1.33E-05   5.11E-02    0.252
665    1.5728   8.72E-06   5.00E-02    0.247
666    1.5674   4.91E-06   4.89E-02    0.242
667    1.5591   3.81E-06   4.77E-02    0.237
668    1.5642   0.00E+00   4.66E-02    0.232
669    1.5589   2.16E-07   4.55E-02    0.227
670    1.5610   0.00E+00   4.45E-02    0.222
671    1.5394   0.00E+00   4.34E-02    0.217
672    1.5061   0.00E+00   4.24E-02    0.212
673    1.5157   0.00E+00   4.13E-02    0.207
674    1.5150   0.00E+00   4.04E-02    0.202
675    1.5150   0.00E+00   3.96E-02    0.201
676    1.5140   0.00E+00   3.87E-02    0.198
677    1.5110   0.00E+00   3.78E-02    0.195
678    1.5070   0.00E+00   3.70E-02    0.192
679    1.5040   0.00E+00   3.62E-02    0.189
680    1.5010   1.97E-07   3.56E-02    0.186
681    1.4980   1.81E-06   3.50E-02    0.183
682    1.4940   4.42E-06   3.44E-02    0.180
683    1.4910   5.44E-06   3.39E-02    0.177
684    1.4880   1.33E-05   3.34E-02    0.174
685    1.4850   7.70E-06   3.28E-02    0.171
686    1.4783   1.32E-05   3.21E-02    0.168
687    1.4414   3.55E-05   3.14E-02    0.165
688    1.4220   7.56E-06   3.05E-02    0.162
689    1.4430   1.45E-05   2.97E-02    0.159
690    1.4740   3.07E-05   2.88E-02    0.156
691    1.4719   1.20E-04   2.80E-02    0.153
692    1.4612   7.34E-04   2.72E-02    0.150
693    1.4610   3.79E-03   2.65E-02    0.147
694    1.4600   7.05E-03   2.58E-02    0.144
695    1.4590   4.75E-03   2.50E-02    0.141
696    1.4500   5.54E-03   2.43E-02    0.138
697    1.4410   8.79E-04   2.36E-02    0.135
698    1.4320   9.06E-04   2.30E-02    0.132
699    1.4230   3.60E-03   2.24E-02    0.129
700    1.4140   3.87E-03   2.18E-02    0.126
701    1.4300   4.32E-03   2.13E-02    0.000
702    1.4375   3.21E-03   2.09E-02    0.000
703    1.4369   3.91E-03   2.05E-02    0.000
704    1.4348   2.00E-03   2.01E-02    0.000
705    1.4258   2.16E-03   1.97E-02    0.000
706    1.4139   1.77E-03   1.94E-02    0.000
707    1.4035   1.41E-03   1.91E-02    0.000
708    1.3987   1.42E-03   1.89E-02    0.000
709    1.4051   6.94E-04   1.86E-02    0.000
710    1.4129   1.02E-03   1.84E-02    0.000
711    1.4109   7.85E-04   1.82E-02    0.000
712    1.4034   4.94E-04   1.80E-02    0.000
713    1.3944   8.01E-04   1.79E-02    0.000
714    1.3855   7.57E-04   1.78E-02    0.000
715    1.3780   1.80E-03   1.77E-02    0.000
716    1.3706   2.20E-03   1.75E-02    0.000
717    1.3645   2.03E-02   1.71E-02    0.000
718    1.3571   3.55E-02   1.67E-02    0.000
719    1.3455   6.52E-02   1.61E-02    0.000
720    1.3395   4.68E-02   1.56E-02    0.000
721    1.3473   2.29E-02   1.50E-02    0.000
